r,counts
0.010000,0.000010
0.030000,0.000055
0.050000,0.000139
0.070000,0.000263
0.090000,0.000457
0.110000,0.000658
0.130000,0.000998
0.150000,0.001209
0.170000,0.001624
0.190000,0.002044
0.210000,0.002425
0.230000,0.002933
0.250000,0.003412
0.270000,0.003879
0.290000,0.004346
0.310000,0.004912
0.330000,0.005434
0.350000,0.005991
0.370000,0.006615
0.390000,0.007272
0.410000,0.008007
0.430000,0.008387
0.450000,0.009242
0.470000,0.009878
0.490000,0.010300
0.510000,0.010884
0.530000,0.011578
0.550000,0.012105
0.570000,0.012484
0.590000,0.012993
0.610000,0.013489
0.630000,0.014185
0.650000,0.014545
0.670000,0.014850
0.690000,0.015468
0.710000,0.015616
0.730000,0.016042
0.750000,0.016354
0.770000,0.016684
0.790000,0.016759
0.810000,0.016976
0.830000,0.017047
0.850000,0.017374
0.870000,0.017826
0.890000,0.017745
0.910000,0.017706
0.930000,0.017239
0.950000,0.017437
0.970000,0.017348
0.990000,0.017447
1.010000,0.017042
1.030000,0.017080
1.050000,0.017093
1.070000,0.016671
1.090000,0.016408
1.110000,0.016263
1.130000,0.015932
1.150000,0.015431
1.170000,0.015260
1.190000,0.014845
1.210000,0.014528
1.230000,0.014288
1.250000,0.014168
1.270000,0.013702
1.290000,0.013356
1.310000,0.012842
1.330000,0.012543
1.350000,0.012123
1.370000,0.011862
1.390000,0.011377
1.410000,0.011107
1.430000,0.010557
1.450000,0.010026
1.470000,0.009758
1.490000,0.009624
1.510000,0.009221
1.530000,0.008866
1.550000,0.008306
1.570000,0.007969
1.590000,0.007642
1.610000,0.007284
1.630000,0.006875
1.650000,0.006715
1.670000,0.006437
1.690000,0.006069
1.710000,0.005762
1.730000,0.005473
1.750000,0.005124
1.770000,0.004932
1.790000,0.004672
1.810000,0.004416
1.830000,0.004205
1.850000,0.003946
1.870000,0.003682
1.890000,0.003533
1.910000,0.003346
1.930000,0.003114
1.950000,0.002816
1.970000,0.002750
1.990000,0.002549
2.010000,0.002303
2.030000,0.002164
2.050000,0.002036
2.070000,0.001997
2.090000,0.001853
2.110000,0.001599
2.130000,0.001600
2.150000,0.001417
2.170000,0.001417
2.190000,0.001261
2.210000,0.001183
2.230000,0.001052
2.250000,0.000977
2.270000,0.000944
2.290000,0.000858
2.310000,0.000785
2.330000,0.000727
2.350000,0.000695
2.370000,0.000640
2.390000,0.000596
2.410000,0.000546
2.430000,0.000445
2.450000,0.000425
2.470000,0.000374
2.490000,0.000370
2.510000,0.000345
2.530000,0.000299
2.550000,0.000290
2.570000,0.000239
2.590000,0.000217
2.610000,0.000220
2.630000,0.000160
2.650000,0.000154
2.670000,0.000151
2.690000,0.000133
2.710000,0.000130
2.730000,0.000096
2.750000,0.000110
2.770000,0.000106
2.790000,0.000088
2.810000,0.000091
2.830000,0.000078
2.850000,0.000062
2.870000,0.000053
2.890000,0.000037
2.910000,0.000048
2.930000,0.000049
2.950000,0.000040
2.970000,0.000031
2.990000,0.000025
3.010000,0.000025
3.030000,0.000023
3.050000,0.000026
3.070000,0.000017
3.090000,0.000011
3.110000,0.000023
3.130000,0.000017
3.150000,0.000013
3.170000,0.000011
3.190000,0.000009
3.210000,0.000007
3.230000,0.000003
3.250000,0.000006
3.270000,0.000006
3.290000,0.000004
3.310000,0.000001
3.330000,0.000004
3.350000,0.000001
3.370000,0.000004
3.390000,0.000000
3.410000,0.000004
3.430000,0.000001
3.450000,0.000003
3.470000,0.000001
3.490000,0.000000
3.510000,0.000001
3.530000,0.000000
3.550000,0.000001
3.570000,0.000001
3.590000,0.000000
3.610000,0.000000
3.630000,0.000000
3.650000,0.000001
3.670000,0.000000
3.690000,0.000000
3.710000,0.000000
3.730000,0.000000
3.750000,0.000001
3.770000,0.000000
3.790000,0.000000
3.810000,0.000000
3.830000,0.000000
3.850000,0.000000
3.870000,0.000000
3.890000,0.000000
3.910000,0.000000
3.930000,0.000000
3.950000,0.000000
3.970000,0.000000
3.990000,0.000000
