r,counts
0.010000,0.000025
0.030000,0.000075
0.050000,0.000198
0.070000,0.000381
0.090000,0.000545
0.110000,0.000898
0.130000,0.001279
0.150000,0.001610
0.170000,0.002121
0.190000,0.002575
0.210000,0.003058
0.230000,0.003628
0.250000,0.004196
0.270000,0.004930
0.290000,0.005401
0.310000,0.006133
0.330000,0.006861
0.350000,0.007570
0.370000,0.008251
0.390000,0.008913
0.410000,0.009629
0.430000,0.010453
0.450000,0.011141
0.470000,0.011774
0.490000,0.012296
0.510000,0.013107
0.530000,0.013757
0.550000,0.014309
0.570000,0.014839
0.590000,0.015054
0.610000,0.015592
0.630000,0.016165
0.650000,0.016386
0.670000,0.016897
0.690000,0.017257
0.710000,0.017445
0.730000,0.017837
0.750000,0.017976
0.770000,0.017978
0.790000,0.018325
0.810000,0.018570
0.830000,0.018487
0.850000,0.018243
0.870000,0.018274
0.890000,0.018267
0.910000,0.017995
0.930000,0.017921
0.950000,0.017736
0.970000,0.017610
0.990000,0.017259
1.010000,0.017220
1.030000,0.016851
1.050000,0.016483
1.070000,0.016162
1.090000,0.015923
1.110000,0.015651
1.130000,0.015207
1.150000,0.014791
1.170000,0.014431
1.190000,0.014132
1.210000,0.013739
1.230000,0.013233
1.250000,0.012839
1.270000,0.012455
1.290000,0.011960
1.310000,0.011604
1.330000,0.011414
1.350000,0.010691
1.370000,0.010477
1.390000,0.009936
1.410000,0.009693
1.430000,0.009195
1.450000,0.008838
1.470000,0.008524
1.490000,0.008084
1.510000,0.007817
1.530000,0.007312
1.550000,0.006989
1.570000,0.006678
1.590000,0.006335
1.610000,0.006200
1.630000,0.005833
1.650000,0.005489
1.670000,0.005135
1.690000,0.004886
1.710000,0.004559
1.730000,0.004542
1.750000,0.004092
1.770000,0.003926
1.790000,0.003589
1.810000,0.003413
1.830000,0.003231
1.850000,0.003054
1.870000,0.002981
1.890000,0.002632
1.910000,0.002480
1.930000,0.002425
1.950000,0.002313
1.970000,0.001986
1.990000,0.001930
2.010000,0.001788
2.030000,0.001732
2.050000,0.001527
2.070000,0.001453
2.090000,0.001362
2.110000,0.001267
2.130000,0.001122
2.150000,0.001128
2.170000,0.000998
2.190000,0.000884
2.210000,0.000833
2.230000,0.000794
2.250000,0.000763
2.270000,0.000640
2.290000,0.000641
2.310000,0.000551
2.330000,0.000506
2.350000,0.000495
2.370000,0.000443
2.390000,0.000409
2.410000,0.000364
2.430000,0.000336
2.450000,0.000284
2.470000,0.000271
2.490000,0.000308
2.510000,0.000229
2.530000,0.000226
2.550000,0.000203
2.570000,0.000162
2.590000,0.000161
2.610000,0.000128
2.630000,0.000141
2.650000,0.000132
2.670000,0.000123
2.690000,0.000095
2.710000,0.000084
2.730000,0.000081
2.750000,0.000078
2.770000,0.000065
2.790000,0.000076
2.810000,0.000054
2.830000,0.000049
2.850000,0.000047
2.870000,0.000042
2.890000,0.000035
2.910000,0.000037
2.930000,0.000028
2.950000,0.000029
2.970000,0.000022
2.990000,0.000025
3.010000,0.000019
3.030000,0.000015
3.050000,0.000011
3.070000,0.000011
3.090000,0.000012
3.110000,0.000007
3.130000,0.000013
3.150000,0.000009
3.170000,0.000011
3.190000,0.000010
3.210000,0.000005
3.230000,0.000006
3.250000,0.000003
3.270000,0.000003
3.290000,0.000004
3.310000,0.000005
3.330000,0.000003
3.350000,0.000000
3.370000,0.000001
3.390000,0.000001
3.410000,0.000003
3.430000,0.000001
3.450000,0.000002
3.470000,0.000001
3.490000,0.000000
3.510000,0.000001
3.530000,0.000001
3.550000,0.000002
3.570000,0.000002
3.590000,0.000000
3.610000,0.000000
3.630000,0.000000
3.650000,0.000000
3.670000,0.000001
3.690000,0.000000
3.710000,0.000000
3.730000,0.000000
3.750000,0.000000
3.770000,0.000000
3.790000,0.000000
3.810000,0.000000
3.830000,0.000000
3.850000,0.000000
3.870000,0.000000
3.890000,0.000000
3.910000,0.000000
3.930000,0.000000
3.950000,0.000000
3.970000,0.000000
3.990000,0.000000
